# x: wavelength (km)
# y: 2D topo power spectral density (km^2 km^2)
x,y
4810.98,9128.57,
2388.89,23696.6,
1594.90,10011.6,
1205.53,9740.54,
796.948,904.625,
685.567,1786.53,
605.535,795.625,
534.743,633.287,
487.802,430.598,
440.940,342.802,
367.421,132.812,
352.038,135.305,
320.715,96.1548,
284.327,73.6934,
267.234,40.1845,
247.263,31.9970,
229.663,29.6458,
220.079,19.5388,
208.435,16.1612,
204.418,17.1033,
